Bruker Nano GmbH Berlin, Germany
Esprit 2.0

Date: 2/7/2020 1:41:14 PM
Real time: 597517445
Life time: 597517445
Pulse density: 8

Primary energy: -1
Take off angle: 35
Tilt angle: 0
Azimut angle: 45

Detector type: XFlash 5010
Window type: slew AP3.3
Detector thickness: 0.45
Si dead layer:0.029

Calibration, lin.: 5.002
Calibration, abs.: -475.793
Mn FWHM: 126.243
Fano factor: 0.107
Channels: 4096

Energy   Counts
-0.4758        0
-0.4708        0
-0.4658        0
-0.4608        0
-0.4558        0
-0.4508        0
-0.4458        0
-0.4408        0
-0.4358        0
-0.4308        0
-0.4258        0
-0.4208        0
-0.4158        0
-0.4108        0
-0.4058        0
-0.4008        0
-0.3958        0
-0.3908        0
-0.3858        0
-0.3808        0
-0.3758        0
-0.3708        0
-0.3658        0
-0.3608        0
-0.3558        0
-0.3508        0
-0.3458        0
-0.3408        0
-0.3358        0
-0.3307        0
-0.3257        0
-0.3207        0
-0.3157        0
-0.3107        0
-0.3057        0
-0.3007        0
-0.2957        0
-0.2907        0
-0.2857        0
-0.2807        0
-0.2757        0
-0.2707        0
-0.2657        0
-0.2607        0
-0.2557        0
-0.2507        0
-0.2457        0
-0.2407        0
-0.2357        0
-0.2307        0
-0.2257        0
-0.2207        0
-0.2157        0
-0.2107        0
-0.2057        0
-0.2007        0
-0.1957        0
-0.1907        0
-0.1857        0
-0.1807        0
-0.1757        0
-0.1707        0
-0.1657        0
-0.1607        0
-0.1557        0
-0.1507        0
-0.1457        0
-0.1407        0
-0.1357        0
-0.1307        0
-0.1257        0
-0.1207        4
-0.1157        9
-0.1107       32
-0.1057      117
-0.1007      475
-0.0957     1354
-0.0907     3936
-0.0857    11096
-0.0807    28505
-0.0757    69765
-0.0707   161015
-0.0657   352259
-0.0607   723932
-0.0557  1412839
-0.0507  2611378
-0.0457  4577158
-0.0407  7596852
-0.0357 11962377
-0.0307 17815907
-0.0257 25071056
-0.0207 33336506
-0.0157 41833514
-0.0107 49448399
-0.0057 55087300
-0.0007 57754254
 0.0044 57039517
 0.0094 53037321
 0.0144 46460263
 0.0194 38395595
 0.0244 29952957
 0.0294 22082134
 0.0344 15400563
 0.0394 10177104
 0.0444  6378499
 0.0494  3791607
 0.0544  2138581
 0.0594  1144774
 0.0644   577471
 0.0694   272760
 0.0744   114556
 0.0794    35866
 0.0844     5582
 0.0894      239
 0.0944        0
 0.0994        0
 0.1044        0
 0.1094       59
 0.1144      252
 0.1194     3084
 0.1244     2814
 0.1294     1647
 0.1344      983
 0.1394      714
 0.1444      666
 0.1494      669
 0.1544      716
 0.1594      698
 0.1644      745
 0.1694      769
 0.1744      784
 0.1794      817
 0.1844      899
 0.1894      875
 0.1944      934
 0.1994      891
 0.2044      911
 0.2094      907
 0.2144      854
 0.2194      833
 0.2244      765
 0.2294      693
 0.2344      658
 0.2394      602
 0.2444      514
 0.2494      501
 0.2544      472
 0.2594      453
 0.2644      429
 0.2694      457
 0.2744      462
 0.2794      465
 0.2844      430
 0.2894      446
 0.2944      412
 0.2994      389
 0.3044      396
 0.3094      395
 0.3144      373
 0.3194      393
 0.3244      374
 0.3294      374
 0.3345      372
 0.3395      329
 0.3445      312
 0.3495      338
 0.3545      361
 0.3595      336
 0.3645      356
 0.3695      361
 0.3745      351
 0.3795      328
 0.3845      320
 0.3895      331
 0.3945      309
 0.3995      301
 0.4045      309
 0.4095      296
 0.4145      301
 0.4195      301
 0.4245      271
 0.4295      278
 0.4345      315
 0.4395      308
 0.4445      288
 0.4495      275
 0.4545      274
 0.4595      272
 0.4645      260
 0.4695      260
 0.4745      252
 0.4795      260
 0.4845      261
 0.4895      263
 0.4945      280
 0.4995      261
 0.5045      265
 0.5095      254
 0.5145      249
 0.5195      263
 0.5245      250
 0.5295      248
 0.5345      247
 0.5395      238
 0.5445      249
 0.5495      247
 0.5545      237
 0.5595      242
 0.5645      212
 0.5695      220
 0.5745      232
 0.5795      237
 0.5845      221
 0.5895      225
 0.5945      205
 0.5995      198
 0.6045      215
 0.6095      210
 0.6145      225
 0.6195      220
 0.6245      181
 0.6295      222
 0.6345      202
 0.6395      211
 0.6445      190
 0.6495      195
 0.6545      207
 0.6595      233
 0.6645      218
 0.6696      224
 0.6746      225
 0.6796      202
 0.6846      218
 0.6896      204
 0.6946      222
 0.6996      208
 0.7046      177
 0.7096      205
 0.7146      178
 0.7196      193
 0.7246      208
 0.7296      204
 0.7346      205
 0.7396      181
 0.7446      180
 0.7496      190
 0.7546      207
 0.7596      176
 0.7646      187
 0.7696      174
 0.7746      201
 0.7796      193
 0.7846      210
 0.7896      183
 0.7946      185
 0.7996      182
 0.8046      211
 0.8096      177
 0.8146      149
 0.8196      185
 0.8246      188
 0.8296      167
 0.8346      163
 0.8396      163
 0.8446      193
 0.8496      182
 0.8546      193
 0.8596      169
 0.8646      176
 0.8696      162
 0.8746      150
 0.8796      161
 0.8846      183
 0.8896      138
 0.8946      153
 0.8996      182
 0.9046      175
 0.9096      177
 0.9146      172
 0.9196      167
 0.9246      148
 0.9296      162
 0.9346      145
 0.9396      173
 0.9446      163
 0.9496      172
 0.9546      175
 0.9596      163
 0.9646      150
 0.9696      181
 0.9746      168
 0.9796      162
 0.9846      138
 0.9896      144
 0.9946      159
 0.9996      151
 1.0047      178
 1.0097      156
 1.0147      140
 1.0197      147
 1.0247      153
 1.0297      178
 1.0347      180
 1.0397      176
 1.0447      160
 1.0497      138
 1.0547      153
 1.0597      175
 1.0647      155
 1.0697      130
 1.0747      137
 1.0797      162
 1.0847      143
 1.0897      156
 1.0947      163
 1.0997      161
 1.1047      149
 1.1097      159
 1.1147      156
 1.1197      170
 1.1247      153
 1.1297      134
 1.1347      170
 1.1397      166
 1.1447      121
 1.1497      134
 1.1547      156
 1.1597      133
 1.1647      152
 1.1697      153
 1.1747      135
 1.1797      146
 1.1847      147
 1.1897      128
 1.1947      154
 1.1997      162
 1.2047      118
 1.2097      151
 1.2147      151
 1.2197      145
 1.2247      148
 1.2297      165
 1.2347      151
 1.2397      160
 1.2447      122
 1.2497      141
 1.2547      157
 1.2597      157
 1.2647      166
 1.2697      175
 1.2747      138
 1.2797      152
 1.2847      161
 1.2897      129
 1.2947      159
 1.2997      182
 1.3047      166
 1.3097      182
 1.3147      177
 1.3197      167
 1.3247      129
 1.3297      150
 1.3348      160
 1.3398      151
 1.3448      170
 1.3498      178
 1.3548      158
 1.3598      170
 1.3648      164
 1.3698      196
 1.3748      195
 1.3798      180
 1.3848      206
 1.3898      223
 1.3948      205
 1.3998      241
 1.4048      317
 1.4098      292
 1.4148      305
 1.4198      345
 1.4248      432
 1.4298      433
 1.4348      466
 1.4398      577
 1.4448      596
 1.4498      709
 1.4548      811
 1.4598      871
 1.4648      967
 1.4698     1069
 1.4748     1147
 1.4798     1230
 1.4848     1209
 1.4898     1285
 1.4948     1352
 1.4998     1316
 1.5048     1247
 1.5098     1247
 1.5148     1180
 1.5198     1150
 1.5248     1075
 1.5298     1007
 1.5348     1016
 1.5398      912
 1.5448      827
 1.5498      767
 1.5548      664
 1.5598      618
 1.5648      500
 1.5698      464
 1.5748      402
 1.5798      359
 1.5848      329
 1.5898      324
 1.5948      256
 1.5998      229
 1.6048      183
 1.6098      158
 1.6148      177
 1.6198      161
 1.6248      146
 1.6298      157
 1.6348      125
 1.6398      137
 1.6448      136
 1.6498      162
 1.6548      123
 1.6598      123
 1.6648      132
 1.6699      122
 1.6749      124
 1.6799      117
 1.6849      153
 1.6899      101
 1.6949      115
 1.6999      128
 1.7049      134
 1.7099      129
 1.7149      148
 1.7199      120
 1.7249      137
 1.7299      141
 1.7349      131
 1.7399      117
 1.7449      125
 1.7499      115
 1.7549      110
 1.7599      112
 1.7649      141
 1.7699      148
 1.7749      144
 1.7799      126
 1.7849      131
 1.7899      139
 1.7949      129
 1.7999      123
 1.8049      156
 1.8099      114
 1.8149      113
 1.8199      124
 1.8249      122
 1.8299      130
 1.8349      144
 1.8399      126
 1.8449      156
 1.8499      160
 1.8549      124
 1.8599      125
 1.8649      125
 1.8699      158
 1.8749      138
 1.8799      134
 1.8849      117
 1.8899      114
 1.8949      140
 1.8999      141
 1.9049      152
 1.9099      144
 1.9149      148
 1.9199      121
 1.9249      151
 1.9299      139
 1.9349      125
 1.9399      131
 1.9449      150
 1.9499      133
 1.9549      122
 1.9599      139
 1.9649      147
 1.9699      130
 1.9749      148
 1.9799      172
 1.9849      152
 1.9899      163
 1.9949      152
 1.9999      158
  2.005      151
   2.01      151
  2.015      152
   2.02      177
  2.025      135
   2.03      170
  2.035      168
   2.04      158
  2.045      169
   2.05      161
  2.055      168
   2.06      159
  2.065      181
   2.07      164
  2.075      151
   2.08      166
  2.085      173
   2.09      165
  2.095      175
    2.1      150
  2.105      145
   2.11      155
  2.115      164
   2.12      152
  2.125      113
   2.13      142
  2.135      150
   2.14      126
  2.145      149
   2.15      169
  2.155      155
   2.16      131
  2.165      160
   2.17      158
  2.175      151
   2.18      136
  2.185      141
   2.19      138
  2.195      139
    2.2      147
  2.205      152
   2.21      138
  2.215      128
   2.22      154
  2.225      144
   2.23      129
  2.235      131
   2.24      134
  2.245      147
   2.25      144
  2.255      176
   2.26      140
  2.265      151
   2.27      137
  2.275      142
   2.28      130
  2.285      144
   2.29      128
  2.295      145
    2.3      142
  2.305      134
   2.31      139
  2.315      121
   2.32      139
  2.325      142
   2.33      134
 2.3351      116
 2.3401      140
 2.3451      119
 2.3501      130
 2.3551      126
 2.3601      117
 2.3651      130
 2.3701      138
 2.3751      127
 2.3801      135
 2.3851      147
 2.3901      146
 2.3951      137
 2.4001      138
 2.4051      130
 2.4101      130
 2.4151      130
 2.4201      168
 2.4251      138
 2.4301      132
 2.4351      133
 2.4401      132
 2.4451      137
 2.4501      153
 2.4551      151
 2.4601      142
 2.4651      154
 2.4701      132
 2.4751      130
 2.4801      120
 2.4851      117
 2.4901      149
 2.4951      144
 2.5001      118
 2.5051      130
 2.5101      122
 2.5151      155
 2.5201      128
 2.5251      116
 2.5301      152
 2.5351      137
 2.5401      128
 2.5451      123
 2.5501      142
 2.5551      133
 2.5601      149
 2.5651      131
 2.5701      155
 2.5751      151
 2.5801      130
 2.5851      134
 2.5901      134
 2.5951      135
 2.6001      130
 2.6051      151
 2.6101      139
 2.6151      136
 2.6201      127
 2.6251      135
 2.6301      136
 2.6351      141
 2.6401      131
 2.6451      110
 2.6501      150
 2.6551      149
 2.6601      125
 2.6651      126
 2.6702      149
 2.6752      155
 2.6802      142
 2.6852      158
 2.6902      125
 2.6952      125
 2.7002      153
 2.7052      129
 2.7102      115
 2.7152      140
 2.7202      143
 2.7252      130
 2.7302      165
 2.7352      171
 2.7402      154
 2.7452      143
 2.7502      126
 2.7552      168
 2.7602      160
 2.7652      159
 2.7702      152
 2.7752      106
 2.7802       99
 2.7852      125
 2.7902      137
 2.7952      123
 2.8002      136
 2.8052      147
 2.8102      147
 2.8152      138
 2.8202      163
 2.8252      127
 2.8302      162
 2.8352      130
 2.8402      122
 2.8452      129
 2.8502      152
 2.8552      126
 2.8602      161
 2.8652      133
 2.8702      150
 2.8752      142
 2.8802      140
 2.8852      108
 2.8902      153
 2.8952      107
 2.9002      191
 2.9052      154
 2.9102      153
 2.9152      166
 2.9202      148
 2.9252      143
 2.9302      148
 2.9352      146
 2.9402      146
 2.9452      158
 2.9502      127
 2.9552      172
 2.9602      175
 2.9652      167
 2.9702      147
 2.9752      156
 2.9802      152
 2.9852      124
 2.9902      158
 2.9952      187
 3.0002      156
 3.0053      156
 3.0103      155
 3.0153      141
 3.0203      162
 3.0253      154
 3.0303      147
 3.0353      150
 3.0403      138
 3.0453      137
 3.0503      122
 3.0553      136
 3.0603      157
 3.0653      163
 3.0703      160
 3.0753      180
 3.0803      134
 3.0853      168
 3.0903      160
 3.0953      151
 3.1003      167
 3.1053      175
 3.1103      148
 3.1153      162
 3.1203      145
 3.1253      158
 3.1303      146
 3.1353      187
 3.1403      172
 3.1453      178
 3.1503      147
 3.1553      148
 3.1603      166
 3.1653      157
 3.1703      147
 3.1753      171
 3.1803      200
 3.1853      189
 3.1903      173
 3.1953      174
 3.2003      173
 3.2053      177
 3.2103      159
 3.2153      150
 3.2203      183
 3.2253      165
 3.2303      163
 3.2353      185
 3.2403      207
 3.2453      184
 3.2503      198
 3.2553      164
 3.2603      166
 3.2653      176
 3.2703      170
 3.2753      216
 3.2803      221
 3.2853      163
 3.2903      193
 3.2953      217
 3.3003      208
 3.3053      214
 3.3103      197
 3.3153      185
 3.3203      225
 3.3253      181
 3.3303      196
 3.3354      188
 3.3404      228
 3.3454      233
 3.3504      249
 3.3554      212
 3.3604      219
 3.3654      208
 3.3704      213
 3.3754      238
 3.3804      238
 3.3854      212
 3.3904      255
 3.3954      251
 3.4004      266
 3.4054      254
 3.4104      288
 3.4154      267
 3.4204      282
 3.4254      272
 3.4304      276
 3.4354      283
 3.4404      308
 3.4454      276
 3.4504      328
 3.4554      304
 3.4604      299
 3.4654      304
 3.4704      339
 3.4754      297
 3.4804      319
 3.4854      317
 3.4904      360
 3.4954      385
 3.5004      350
 3.5054      371
 3.5104      363
 3.5154      358
 3.5204      390
 3.5254      391
 3.5304      393
 3.5354      378
 3.5404      381
 3.5454      402
 3.5504      435
 3.5554      462
 3.5604      440
 3.5654      505
 3.5704      501
 3.5754      470
 3.5804      502
 3.5854      491
 3.5904      511
 3.5954      507
 3.6004      530
 3.6054      577
 3.6104      537
 3.6154      553
 3.6204      643
 3.6254      566
 3.6304      653
 3.6354      599
 3.6404      651
 3.6454      673
 3.6504      625
 3.6554      668
 3.6604      663
 3.6654      733
 3.6705      748
 3.6755      788
 3.6805      746
 3.6855      839
 3.6905      829
 3.6955      802
 3.7005      819
 3.7055      806
 3.7105      839
 3.7155      934
 3.7205      864
 3.7255      891
 3.7305      854
 3.7355      898
 3.7405      945
 3.7455      986
 3.7505      952
 3.7555     1009
 3.7605      948
 3.7655     1020
 3.7705     1040
 3.7755      992
 3.7805     1069
 3.7855     1149
 3.7905     1057
 3.7955     1138
 3.8005     1166
 3.8055     1134
 3.8105     1133
 3.8155     1223
 3.8205     1257
 3.8255     1262
 3.8305     1305
 3.8355     1294
 3.8405     1294
 3.8455     1321
 3.8505     1418
 3.8555     1505
 3.8605     1461
 3.8655     1453
 3.8705     1586
 3.8755     1558
 3.8805     1524
 3.8855     1623
 3.8905     1605
 3.8955     1639
 3.9005     1655
 3.9055     1794
 3.9105     1733
 3.9155     1787
 3.9205     1772
 3.9255     1825
 3.9305     1853
 3.9355     1914
 3.9405     1908
 3.9455     1967
 3.9505     2039
 3.9555     2072
 3.9605     2066
 3.9655     2085
 3.9705     2186
 3.9755     2231
 3.9805     2269
 3.9855     2288
 3.9905     2299
 3.9955     2423
 4.0005     2381
 4.0056     2414
 4.0106     2457
 4.0156     2541
 4.0206     2480
 4.0256     2530
 4.0306     2683
 4.0356     2602
 4.0406     2698
 4.0456     2736
 4.0506     2821
 4.0556     2813
 4.0606     2856
 4.0656     2889
 4.0706     3025
 4.0756     3037
 4.0806     3103
 4.0856     3195
 4.0906     3033
 4.0956     3120
 4.1006     3277
 4.1056     3222
 4.1106     3268
 4.1156     3427
 4.1206     3398
 4.1256     3478
 4.1306     3496
 4.1356     3550
 4.1406     3682
 4.1456     3543
 4.1506     3741
 4.1556     3734
 4.1606     3841
 4.1656     3829
 4.1706     3880
 4.1756     3994
 4.1806     4016
 4.1856     4025
 4.1906     4108
 4.1956     4169
 4.2006     4297
 4.2056     4304
 4.2106     4343
 4.2156     4416
 4.2206     4468
 4.2256     4481
 4.2306     4504
 4.2356     4483
 4.2406     4607
 4.2456     4719
 4.2506     4878
 4.2556     4752
 4.2606     5005
 4.2656     4988
 4.2706     5139
 4.2756     4985
 4.2806     5216
 4.2856     5244
 4.2906     5238
 4.2956     5324
 4.3006     5377
 4.3056     5559
 4.3106     5536
 4.3156     5476
 4.3206     5541
 4.3256     5657
 4.3306     5816
 4.3357     5837
 4.3407     5898
 4.3457     5888
 4.3507     6000
 4.3557     6005
 4.3607     6060
 4.3657     6178
 4.3707     6284
 4.3757     6437
 4.3807     6400
 4.3857     6516
 4.3907     6469
 4.3957     6492
 4.4007     6605
 4.4057     6786
 4.4107     6687
 4.4157     6616
 4.4207     6980
 4.4257     6867
 4.4307     6838
 4.4357     7062
 4.4407     7329
 4.4457     7218
 4.4507     7260
 4.4557     7516
 4.4607     7581
 4.4657     7418
 4.4707     7582
 4.4757     7545
 4.4807     7596
 4.4857     7666
 4.4907     7885
 4.4957     7885
 4.5007     7887
 4.5057     8119
 4.5107     8067
 4.5157     8293
 4.5207     8262
 4.5257     8348
 4.5307     8227
 4.5357     8537
 4.5407     8681
 4.5457     8593
 4.5507     8474
 4.5557     8594
 4.5607     8945
 4.5657     8682
 4.5707     8821
 4.5757     8949
 4.5807     9074
 4.5857     9214
 4.5907     9148
 4.5957     9017
 4.6007     9315
 4.6057     9194
 4.6107     9402
 4.6157     9393
 4.6207     9460
 4.6257     9553
 4.6307     9710
 4.6357     9855
 4.6407     9739
 4.6457     9960
 4.6507     9942
 4.6557     9909
 4.6607     9997
 4.6657    10086
 4.6708    10123
 4.6758    10279
 4.6808    10353
 4.6858    10327
 4.6908    10454
 4.6958    10453
 4.7008    10591
 4.7058    10548
 4.7108    10718
 4.7158    10672
 4.7208    10690
 4.7258    10749
 4.7308    10773
 4.7358    10981
 4.7408    10928
 4.7458    11049
 4.7508    11181
 4.7558    11178
 4.7608    11435
 4.7658    11339
 4.7708    11262
 4.7758    11462
 4.7808    11422
 4.7858    11791
 4.7908    11673
 4.7958    11594
 4.8008    12017
 4.8058    11746
 4.8108    11701
 4.8158    11896
 4.8208    11932
 4.8258    11813
 4.8308    11858
 4.8358    11911
 4.8408    12068
 4.8458    12077
 4.8508    12350
 4.8558    11976
 4.8608    12279
 4.8658    12311
 4.8708    12285
 4.8758    12199
 4.8808    12179
 4.8858    12491
 4.8908    12479
 4.8958    12343
 4.9008    12665
 4.9058    12689
 4.9108    12954
 4.9158    12813
 4.9208    12894
 4.9258    12984
 4.9308    12636
 4.9358    12957
 4.9408    12966
 4.9458    12944
 4.9508    12672
 4.9558    13060
 4.9608    13172
 4.9658    12956
 4.9708    13232
 4.9758    13261
 4.9808    13284
 4.9858    13184
 4.9908    13077
 4.9958    13226
 5.0008    13257
 5.0059    13187
 5.0109    13467
 5.0159    13285
 5.0209    13115
 5.0259    13391
 5.0309    13332
 5.0359    13393
 5.0409    13331
 5.0459    13589
 5.0509    13258
 5.0559    13301
 5.0609    13556
 5.0659    13472
 5.0709    13633
 5.0759    13517
 5.0809    13381
 5.0859    13732
 5.0909    13442
 5.0959    13408
 5.1009    13642
 5.1059    13509
 5.1109    13530
 5.1159    13401
 5.1209    13528
 5.1259    13451
 5.1309    13570
 5.1359    13576
 5.1409    13490
 5.1459    13357
 5.1509    13598
 5.1559    13622
 5.1609    13684
 5.1659    13495
 5.1709    13580
 5.1759    13635
 5.1809    13597
 5.1859    13634
 5.1909    13630
 5.1959    13549
 5.2009    13704
 5.2059    13756
 5.2109    13732
 5.2159    13795
 5.2209    13627
 5.2259    13656
 5.2309    13629
 5.2359    13700
 5.2409    13668
 5.2459    13688
 5.2509    13483
 5.2559    13594
 5.2609    13731
 5.2659    13987
 5.2709    13517
 5.2759    13478
